; C:\DIFFDAT1\Dorothea\Richard\Neuer Ordner\191126_P1_MER_RS03_3d_150_unkalz_V57.raw(Diffrac Plus V1.01 file) converted by XCH V1.0
_FILEVERSION=2
_SAMPLE='191126_P1_MER_RS03_3d_150_unkalz_V57'
_SITE='Deutschland'
_USER='Administrator'
_ATTACHMENTS_CODE=0
_GONIOMETER_RADIUS=217.500000
_FIXED_DIVSLIT=0.000000
_FIXED_SAMPLESLIT=0.000000
_FIXED_DETSLIT=10.390000
_MONOCHROMATOR=0
; None
_THIN_FILM='N'
_BETA_FILTER='N'
_FIXED_ANTISLIT=6.970000
_ANALYZER_CODE=0
; None
_DATEMEASURED='26-Nov-2019 13:44:11'
_WL_UNIT='A'
_WL1=1.540600
_WL2=1.544390
_WL3=1.392220
_WLRATIO=0.500000
_ANODE='Cu'
; (Data for Range number 1)
_DRIVE='COUPLED'
_STEPTIME=398.003998
_STEPSIZE=0.015259
_STEPMODE='C'
_START=5.000000
_THETA=2.500000
_2THETA=5.000000
_KHI=0.000000
_PHI=0.000000
_X=0.000000
_Y=0.000000
_Z=0.000000
_DIVERGENCE=0.298000
_ANTISCATTER=0.298000
_DETECTOR=5
_DETECTORSLIT='unkn'
_AUX1=0.000000
_AUX2=0.000000
_AUX3=0.000000
_TIMESTARTED=29.000000
_TEMP_RATE=-1.000000
_TEMP_DELAY=-1.000000
_KV=35
_MA=40
_RANGE_WL=1.540600
_3DPLANE=0
_2THETACOUNTS
   5.0000      1645
   5.0153      1681
   5.0305      1638
   5.0458      1671
   5.0610      1673
   5.0763      1572
   5.0916      1558
   5.1068      1601
   5.1221      1603
   5.1373      1521
   5.1526      1620
   5.1678      1632
   5.1831      1680
   5.1984      1563
   5.2136      1499
   5.2289      1638
   5.2441      1585
   5.2594      1547
   5.2747      1580
   5.2899      1480
   5.3052      1563
   5.3204      1551
   5.3357      1533
   5.3510      1486
   5.3662      1576
   5.3815      1652
   5.3967      1511
   5.4120      1496
   5.4272      1487
   5.4425      1501
   5.4578      1467
   5.4730      1499
   5.4883      1501
   5.5035      1523
   5.5188      1477
   5.5341      1489
   5.5493      1514
   5.5646      1529
   5.5798      1487
   5.5951      1509
   5.6104      1457
   5.6256      1437
   5.6409      1419
   5.6561      1461
   5.6714      1437
   5.6867      1495
   5.7019      1555
   5.7172      1463
   5.7324      1465
   5.7477      1418
   5.7629      1460
   5.7782      1469
   5.7935      1465
   5.8087      1476
   5.8240      1411
   5.8392      1471
   5.8545      1486
   5.8698      1471
   5.8850      1427
   5.9003      1507
   5.9155      1497
   5.9308      1570
   5.9461      1471
   5.9613      1549
   5.9766      1491
   5.9918      1501
   6.0071      1469
   6.0223      1487
   6.0376      1516
   6.0529      1427
   6.0681      1529
   6.0834      1501
   6.0986      1501
   6.1139      1452
   6.1292      1528
   6.1444      1522
   6.1597      1577
   6.1749      1540
   6.1902      1556
   6.2055      1574
   6.2207      1569
   6.2360      1450
   6.2512      1550
   6.2665      1474
   6.2817      1525
   6.2970      1433
   6.3123      1448
   6.3275      1451
   6.3428      1469
   6.3580      1414
   6.3733      1392
   6.3886      1385
   6.4038      1429
   6.4191      1450
   6.4343      1285
   6.4496      1368
   6.4649      1282
   6.4801      1303
   6.4954      1369
   6.5106      1325
   6.5259      1284
   6.5411      1280
   6.5564      1306
   6.5717      1262
   6.5869      1254
   6.6022      1282
   6.6174      1298
   6.6327      1356
   6.6480      1298
   6.6632      1234
   6.6785      1191
   6.6937      1322
   6.7090      1340
   6.7243      1249
   6.7395      1262
   6.7548      1243
   6.7700      1287
   6.7853      1231
   6.8006      1193
   6.8158      1245
   6.8311      1237
   6.8463      1245
   6.8616      1177
   6.8768      1196
   6.8921      1240
   6.9074      1268
   6.9226      1178
   6.9379      1226
   6.9531      1200
   6.9684      1186
   6.9837      1225
   6.9989      1146
   7.0142      1195
   7.0294      1060
   7.0447      1156
   7.0600      1100
   7.0752      1204
   7.0905      1161
   7.1057      1153
   7.1210      1123
   7.1362      1149
   7.1515      1132
   7.1668      1094
   7.1820      1102
   7.1973      1147
   7.2125      1140
   7.2278      1119
   7.2431      1174
   7.2583      1134
   7.2736      1165
   7.2888      1107
   7.3041      1184
   7.3194      1168
   7.3346      1149
   7.3499      1125
   7.3651      1128
   7.3804      1122
   7.3956      1175
   7.4109      1136
   7.4262      1122
   7.4414      1174
   7.4567      1139
   7.4719      1084
   7.4872      1094
   7.5025      1066
   7.5177      1064
   7.5330      1115
   7.5482      1079
   7.5635      1059
   7.5788      1091
   7.5940      1040
   7.6093      1098
   7.6245      1050
   7.6398      1068
   7.6550      1074
   7.6703      1087
   7.6856      1067
   7.7008      1030
   7.7161      1030
   7.7313      1037
   7.7466      1058
   7.7619      1066
   7.7771      1042
   7.7924      1035
   7.8076      1114
   7.8229      1070
   7.8382      1081
   7.8534      1051
   7.8687      1082
   7.8839      1044
   7.8992      1035
   7.9144      1053
   7.9297      1058
   7.9450       987
   7.9602       959
   7.9755      1037
   7.9907      1033
   8.0060      1035
   8.0213      1055
   8.0365      1057
   8.0518      1032
   8.0670      1024
   8.0823      1000
   8.0976      1063
   8.1128      1080
   8.1281      1008
   8.1433      1027
   8.1586      1046
   8.1739      1061
   8.1891      1099
   8.2044      1000
   8.2196      1055
   8.2349      1020
   8.2501      1010
   8.2654       987
   8.2807      1007
   8.2959      1039
   8.3112      1054
   8.3264      1047
   8.3417      1025
   8.3570      1002
   8.3722       995
   8.3875      1115
   8.4027      1015
   8.4180      1032
   8.4333      1017
   8.4485      1020
   8.4638      1085
   8.4790      1109
   8.4943      1085
   8.5095      1021
   8.5248      1055
   8.5401      1047
   8.5553      1090
   8.5706      1104
   8.5858      1063
   8.6011      1101
   8.6164      1095
   8.6316      1181
   8.6469      1180
   8.6621      1123
   8.6774      1196
   8.6927      1153
   8.7079      1169
   8.7232      1204
   8.7384      1215
   8.7537      1271
   8.7689      1234
   8.7842      1243
   8.7995      1336
   8.8147      1308
   8.8300      1434
   8.8452      1410
   8.8605      1406
   8.8758      1441
   8.8910      1502
   8.9063      1460
   8.9215      1405
   8.9368      1484
   8.9521      1422
   8.9673      1436
   8.9826      1446
   8.9978      1489
   9.0131      1478
   9.0283      1397
   9.0436      1343
   9.0589      1256
   9.0741      1307
   9.0894      1275
   9.1046      1222
   9.1199      1210
   9.1352      1152
   9.1504      1196
   9.1657      1156
   9.1809      1161
   9.1962      1091
   9.2115      1112
   9.2267      1097
   9.2420       995
   9.2572      1057
   9.2725      1063
   9.2878       962
   9.3030      1028
   9.3183      1023
   9.3335       963
   9.3488       989
   9.3640       998
   9.3793      1034
   9.3946      1027
   9.4098      1030
   9.4251      1019
   9.4403      1045
   9.4556       993
   9.4709       994
   9.4861       952
   9.5014      1003
   9.5166       987
   9.5319       925
   9.5472       893
   9.5624       893
   9.5777       956
   9.5929       942
   9.6082       890
   9.6234       967
   9.6387       916
   9.6540       906
   9.6692       982
   9.6845       979
   9.6997       949
   9.7150       971
   9.7303       963
   9.7455       899
   9.7608       905
   9.7760       950
   9.7913       929
   9.8066       973
   9.8218       928
   9.8371       942
   9.8523       904
   9.8676       913
   9.8828       933
   9.8981       903
   9.9134       930
   9.9286       943
   9.9439       939
   9.9591       945
   9.9744       950
   9.9897       923
  10.0049       925
  10.0202       982
  10.0354       902
  10.0507       868
  10.0660       877
  10.0812       926
  10.0965       939
  10.1117       914
  10.1270       926
  10.1422       940
  10.1575       962
  10.1728       956
  10.1880       941
  10.2033       949
  10.2185       963
  10.2338       952
  10.2491       896
  10.2643       962
  10.2796      1036
  10.2948      1013
  10.3101       969
  10.3254       969
  10.3406       940
  10.3559       956
  10.3711       955
  10.3864       932
  10.4017      1002
  10.4169       942
  10.4322      1001
  10.4474       980
  10.4627      1026
  10.4779      1007
  10.4932       967
  10.5085      1035
  10.5237      1072
  10.5390      1045
  10.5542      1090
  10.5695      1075
  10.5848      1154
  10.6000      1127
  10.6153      1151
  10.6305      1161
  10.6458      1241
  10.6611      1258
  10.6763      1366
  10.6916      1353
  10.7068      1435
  10.7221      1577
  10.7373      1654
  10.7526      1759
  10.7679      1920
  10.7831      2105
  10.7984      2271
  10.8136      2535
  10.8289      2739
  10.8442      3135
  10.8594      3321
  10.8747      3539
  10.8899      4013
  10.9052      4406
  10.9205      4510
  10.9357      4606
  10.9510      4519
  10.9662      4363
  10.9815      4227
  10.9967      3972
  11.0120      3668
  11.0273      3208
  11.0425      2934
  11.0578      2685
  11.0730      2291
  11.0883      2061
  11.1036      1937
  11.1188      1721
  11.1341      1599
  11.1493      1468
  11.1646      1401
  11.1799      1273
  11.1951      1276
  11.2104      1221
  11.2256      1146
  11.2409      1154
  11.2561      1137
  11.2714      1065
  11.2867      1136
  11.3019      1106
  11.3172      1110
  11.3324      1094
  11.3477      1059
  11.3630      1028
  11.3782      1047
  11.3935      1065
  11.4087      1057
  11.4240      1007
  11.4393      1015
  11.4545       998
  11.4698      1010
  11.4850      1007
  11.5003       932
  11.5156      1002
  11.5308       987
  11.5461       969
  11.5613       922
  11.5766       947
  11.5918       992
  11.6071       956
  11.6224       934
  11.6376       977
  11.6529       994
  11.6681       979
  11.6834       999
  11.6987      1016
  11.7139       988
  11.7292       971
  11.7444       992
  11.7597       958
  11.7750       933
  11.7902       942
  11.8055       967
  11.8207       928
  11.8360       959
  11.8512       942
  11.8665       954
  11.8818       969
  11.8970       978
  11.9123       995
  11.9275      1006
  11.9428       942
  11.9581       932
  11.9733       904
  11.9886       970
  12.0038       925
  12.0191      1011
  12.0344       970
  12.0496      1026
  12.0649       984
  12.0801       971
  12.0954       990
  12.1106      1082
  12.1259      1045
  12.1412      1064
  12.1564      1043
  12.1717      1107
  12.1869      1092
  12.2022      1136
  12.2175      1170
  12.2327      1179
  12.2480      1236
  12.2632      1310
  12.2785      1331
  12.2938      1330
  12.3090      1403
  12.3243      1526
  12.3395      1615
  12.3548      1707
  12.3700      1795
  12.3853      2001
  12.4006      2092
  12.4158      2265
  12.4311      2473
  12.4463      2696
  12.4616      3034
  12.4769      3299
  12.4921      3526
  12.5074      4001
  12.5226      4296
  12.5379      4610
  12.5532      4998
  12.5684      5306
  12.5837      5413
  12.5989      5702
  12.6142      5933
  12.6295      5635
  12.6447      5536
  12.6600      5256
  12.6752      4961
  12.6905      4610
  12.7057      4247
  12.7210      3864
  12.7363      3351
  12.7515      3005
  12.7668      2778
  12.7820      2477
  12.7973      2282
  12.8126      1986
  12.8278      1830
  12.8431      1772
  12.8583      1532
  12.8736      1501
  12.8889      1401
  12.9041      1283
  12.9194      1299
  12.9346      1254
  12.9499      1088
  12.9651      1146
  12.9804      1070
  12.9957      1063
  13.0109      1008
  13.0262       996
  13.0414       913
  13.0567       957
  13.0720       943
  13.0872       873
  13.1025       910
  13.1177       894
  13.1330       821
  13.1483       809
  13.1635       857
  13.1788       832
  13.1940       851
  13.2093       833
  13.2245       796
  13.2398       800
  13.2551       817
  13.2703       770
  13.2856       821
  13.3008       846
  13.3161       765
  13.3314       790
  13.3466       839
  13.3619       790
  13.3771       770
  13.3924       739
  13.4077       767
  13.4229       776
  13.4382       797
  13.4534       774
  13.4687       797
  13.4839       749
  13.4992       755
  13.5145       791
  13.5297       786
  13.5450       744
  13.5602       768
  13.5755       752
  13.5908       736
  13.6060       690
  13.6213       746
  13.6365       750
  13.6518       721
  13.6671       735
  13.6823       718
  13.6976       792
  13.7128       713
  13.7281       716
  13.7433       729
  13.7586       704
  13.7739       715
  13.7891       674
  13.8044       689
  13.8196       715
  13.8349       688
  13.8502       740
  13.8654       714
  13.8807       689
  13.8959       727
  13.9112       693
  13.9265       693
  13.9417       674
  13.9570       705
  13.9722       698
  13.9875       664
  14.0028       709
  14.0180       713
  14.0333       710
  14.0485       743
  14.0638       691
  14.0790       703
  14.0943       718
  14.1096       677
  14.1248       666
  14.1401       675
  14.1553       706
  14.1706       730
  14.1859       701
  14.2011       707
  14.2164       655
  14.2316       763
  14.2469       685
  14.2622       629
  14.2774       637
  14.2927       661
  14.3079       686
  14.3232       685
  14.3384       722
  14.3537       655
  14.3690       686
  14.3842       647
  14.3995       627
  14.4147       654
  14.4300       670
  14.4453       634
  14.4605       638
  14.4758       679
  14.4910       658
  14.5063       636
  14.5216       685
  14.5368       681
  14.5521       613
  14.5673       669
  14.5826       671
  14.5978       640
  14.6131       676
  14.6284       623
  14.6436       679
  14.6589       668
  14.6741       633
  14.6894       665
  14.7047       650
  14.7199       657
  14.7352       639
  14.7504       626
  14.7657       692
  14.7810       587
  14.7962       651
  14.8115       679
  14.8267       674
  14.8420       598
  14.8572       647
  14.8725       576
  14.8878       669
  14.9030       674
  14.9183       593
  14.9335       673
  14.9488       635
  14.9641       606
  14.9793       648
  14.9946       580
  15.0098       612
  15.0251       629
  15.0404       660
  15.0556       642
  15.0709       638
  15.0861       649
  15.1014       638
  15.1167       635
  15.1319       638
  15.1472       653
  15.1624       614
  15.1777       663
  15.1929       620
  15.2082       627
  15.2235       624
  15.2387       607
  15.2540       688
  15.2692       652
  15.2845       636
  15.2998       654
  15.3150       623
  15.3303       648
  15.3455       672
  15.3608       598
  15.3761       653
  15.3913       691
  15.4066       678
  15.4218       672
  15.4371       655
  15.4523       634
  15.4676       657
  15.4829       661
  15.4981       704
  15.5134       665
  15.5286       655
  15.5439       719
  15.5592       628
  15.5744       601
  15.5897       668
  15.6049       607
  15.6202       680
  15.6355       618
  15.6507       638
  15.6660       629
  15.6812       626
  15.6965       593
  15.7117       614
  15.7270       637
  15.7423       636
  15.7575       690
  15.7728       638
  15.7880       609
  15.8033       646
  15.8186       702
  15.8338       616
  15.8491       617
  15.8643       649
  15.8796       593
  15.8949       677
  15.9101       640
  15.9254       677
  15.9406       647
  15.9559       699
  15.9711       688
  15.9864       648
  16.0017       616
  16.0169       640
  16.0322       679
  16.0474       662
  16.0627       658
  16.0780       696
  16.0932       695
  16.1085       683
  16.1237       692
  16.1390       737
  16.1543       703
  16.1695       724
  16.1848       771
  16.2000       713
  16.2153       731
  16.2306       698
  16.2458       775
  16.2611       764
  16.2763       790
  16.2916       751
  16.3068       790
  16.3221       790
  16.3374       798
  16.3526       857
  16.3679       861
  16.3831       897
  16.3984       886
  16.4137      1025
  16.4289      1028
  16.4442      1084
  16.4594      1087
  16.4747      1174
  16.4900      1219
  16.5052      1368
  16.5205      1445
  16.5357      1587
  16.5510      1722
  16.5662      1841
  16.5815      1928
  16.5968      2149
  16.6120      2239
  16.6273      2365
  16.6425      2507
  16.6578      2551
  16.6731      2666
  16.6883      2797
  16.7036      2708
  16.7188      2703
  16.7341      2697
  16.7494      2510
  16.7646      2513
  16.7799      2361
  16.7951      2243
  16.8104      2130
  16.8256      1927
  16.8409      1799
  16.8562      1704
  16.8714      1607
  16.8867      1469
  16.9019      1344
  16.9172      1265
  16.9325      1225
  16.9477      1175
  16.9630      1139
  16.9782      1050
  16.9935       973
  17.0088       913
  17.0240       920
  17.0393       860
  17.0545       849
  17.0698       808
  17.0850       870
  17.1003       829
  17.1156       844
  17.1308       794
  17.1461       811
  17.1613       785
  17.1766       763
  17.1919       789
  17.2071       828
  17.2224       783
  17.2376       750
  17.2529       800
  17.2682       776
  17.2834       796
  17.2987       793
  17.3139       752
  17.3292       749
  17.3445       801
  17.3597       779
  17.3750       744
  17.3902       781
  17.4055       777
  17.4207       811
  17.4360       845
  17.4513       825
  17.4665       977
  17.4818       829
  17.4970       818
  17.5123       900
  17.5276       913
  17.5428       963
  17.5581      1007
  17.5733      1046
  17.5886      1057
  17.6039      1144
  17.6191      1208
  17.6344      1401
  17.6496      1467
  17.6649      1561
  17.6801      1844
  17.6954      2089
  17.7107      2237
  17.7259      2583
  17.7412      2891
  17.7564      3327
  17.7717      3645
  17.7870      3991
  17.8022      4137
  17.8175      4413
  17.8327      4343
  17.8480      4669
  17.8633      4598
  17.8785      4664
  17.8938      4660
  17.9090      4491
  17.9243      4203
  17.9395      3805
  17.9548      3460
  17.9701      3008
  17.9853      2588
  18.0006      2240
  18.0158      2037
  18.0311      1712
  18.0464      1586
  18.0616      1455
  18.0769      1360
  18.0921      1265
  18.1074      1167
  18.1227      1067
  18.1379      1010
  18.1532      1025
  18.1684       959
  18.1837       912
  18.1989       856
  18.2142       862
  18.2295       778
  18.2447       800
  18.2600       776
  18.2752       733
  18.2905       710
  18.3058       778
  18.3210       747
  18.3363       750
  18.3515       738
  18.3668       721
  18.3821       698
  18.3973       678
  18.4126       711
  18.4278       679
  18.4431       731
  18.4583       697
  18.4736       744
  18.4889       679
  18.5041       636
  18.5194       649
  18.5346       673
  18.5499       710
  18.5652       658
  18.5804       648
  18.5957       645
  18.6109       650
  18.6262       725
  18.6415       666
  18.6567       653
  18.6720       655
  18.6872       668
  18.7025       677
  18.7178       665
  18.7330       655
  18.7483       650
  18.7635       604
  18.7788       590
  18.7940       649
  18.8093       627
  18.8246       668
  18.8398       650
  18.8551       662
  18.8703       715
  18.8856       650
  18.9009       697
  18.9161       673
  18.9314       654
  18.9466       654
  18.9619       660
  18.9772       693
  18.9924       699
  19.0077       689
  19.0229       655
  19.0382       648
  19.0534       712
  19.0687       625
  19.0840       661
  19.0992       682
  19.1145       642
  19.1297       690
  19.1450       687
  19.1603       654
  19.1755       655
  19.1908       763
  19.2060       654
  19.2213       697
  19.2366       677
  19.2518       632
  19.2671       709
  19.2823       624
  19.2976       722
  19.3128       719
  19.3281       761
  19.3434       690
  19.3586       738
  19.3739       715
  19.3891       798
  19.4044       704
  19.4197       762
  19.4349       721
  19.4502       799
  19.4654       779
  19.4807       771
  19.4960       830
  19.5112       860
  19.5265       830
  19.5417       794
  19.5570       830
  19.5722       866
  19.5875       882
  19.6028       866
  19.6180       965
  19.6333       931
  19.6485       964
  19.6638      1064
  19.6791      1041
  19.6943      1087
  19.7096      1169
  19.7248      1231
  19.7401      1278
  19.7554      1279
  19.7706      1408
  19.7859      1430
  19.8011      1553
  19.8164      1615
  19.8317      1695
  19.8469      1895
  19.8622      1928
  19.8774      2104
  19.8927      2283
  19.9079      2382
  19.9232      2458
  19.9385      2553
  19.9537      2765
  19.9690      2806
  19.9842      2774
  19.9995      2927
  20.0148      2891
  20.0300      2900
  20.0453      2815
  20.0605      2705
  20.0758      2583
  20.0911      2471
  20.1063      2380
  20.1216      2281
  20.1368      2125
  20.1521      1954
  20.1673      1835
  20.1826      1757
  20.1979      1634
  20.2131      1526
  20.2284      1493
  20.2436      1400
  20.2589      1356
  20.2742      1316
  20.2894      1170
  20.3047      1230
  20.3199      1127
  20.3352      1116
  20.3505      1065
  20.3657      1051
  20.3810      1005
  20.3962       996
  20.4115       992
  20.4267       985
  20.4420       983
  20.4573       947
  20.4725       990
  20.4878       946
  20.5030       941
  20.5183       992
  20.5336       943
  20.5488       974
  20.5641       981
  20.5793       995
  20.5946      1043
  20.6099      1045
  20.6251      1091
  20.6404      1134
  20.6556      1145
  20.6709      1229
  20.6861      1274
  20.7014      1319
  20.7167      1478
  20.7319      1591
  20.7472      1682
  20.7624      1807
  20.7777      1891
  20.7930      2013
  20.8082      2173
  20.8235      2202
  20.8387      2247
  20.8540      2384
  20.8693      2411
  20.8845      2356
  20.8998      2432
  20.9150      2285
  20.9303      2218
  20.9456      2283
  20.9608      2084
  20.9761      2114
  20.9913      2033
  21.0066      1839
  21.0218      1782
  21.0371      1679
  21.0524      1577
  21.0676      1511
  21.0829      1365
  21.0981      1320
  21.1134      1228
  21.1287      1174
  21.1439      1110
  21.1592      1086
  21.1744      1056
  21.1897       961
  21.2050       965
  21.2202       922
  21.2355       841
  21.2507       830
  21.2660       835
  21.2812       880
  21.2965       816
  21.3118       776
  21.3270       740
  21.3423       818
  21.3575       758
  21.3728       742
  21.3881       722
  21.4033       743
  21.4186       722
  21.4338       730
  21.4491       734
  21.4644       683
  21.4796       682
  21.4949       700
  21.5101       681
  21.5254       715
  21.5406       721
  21.5559       724
  21.5712       679
  21.5864       721
  21.6017       679
  21.6169       769
  21.6322       721
  21.6475       705
  21.6627       786
  21.6780       783
  21.6932       795
  21.7085       876
  21.7238       870
  21.7390       896
  21.7543       947
  21.7695       993
  21.7848      1045
  21.8000      1057
  21.8153      1149
  21.8306      1139
  21.8458      1184
  21.8611      1286
  21.8763      1309
  21.8916      1292
  21.9069      1309
  21.9221      1325
  21.9374      1222
  21.9526      1224
  21.9679      1293
  21.9832      1185
  21.9984      1086
  22.0137      1037
  22.0289       990
  22.0442       952
  22.0595       896
  22.0747       845
  22.0900       816
  22.1052       784
  22.1205       782
  22.1357       710
  22.1510       719
  22.1663       690
  22.1815       679
  22.1968       711
  22.2120       683
  22.2273       670
  22.2426       667
  22.2578       663
  22.2731       637
  22.2883       673
  22.3036       642
  22.3189       642
  22.3341       669
  22.3494       622
  22.3646       609
  22.3799       637
  22.3951       626
  22.4104       605
  22.4257       586
  22.4409       619
  22.4562       601
  22.4714       601
  22.4867       618
  22.5020       530
  22.5172       634
  22.5325       612
  22.5477       615
  22.5630       631
  22.5783       603
  22.5935       577
  22.6088       556
  22.6240       616
  22.6393       595
  22.6545       630
  22.6698       609
  22.6851       606
  22.7003       596
  22.7156       628
  22.7308       635
  22.7461       627
  22.7614       646
  22.7766       651
  22.7919       638
  22.8071       625
  22.8224       623
  22.8377       594
  22.8529       574
  22.8682       599
  22.8834       607
  22.8987       641
  22.9139       610
  22.9292       567
  22.9445       612
  22.9597       606
  22.9750       635
  22.9902       613
  23.0055       560
  23.0208       594
  23.0360       569
  23.0513       592
  23.0665       577
  23.0818       622
  23.0971       534
  23.1123       598
  23.1276       545
  23.1428       601
  23.1581       610
  23.1733       597
  23.1886       552
  23.2039       583
  23.2191       576
  23.2344       597
  23.2496       618
  23.2649       616
  23.2802       598
  23.2954       586
  23.3107       622
  23.3259       616
  23.3412       601
  23.3565       597
  23.3717       570
  23.3870       593
  23.4022       589
  23.4175       619
  23.4328       591
  23.4480       617
  23.4633       634
  23.4785       570
  23.4938       607
  23.5090       599
  23.5243       658
  23.5396       592
  23.5548       572
  23.5701       650
  23.5853       577
  23.6006       619
  23.6159       634
  23.6311       583
  23.6464       595
  23.6616       611
  23.6769       623
  23.6922       555
  23.7074       606
  23.7227       641
  23.7379       628
  23.7532       628
  23.7684       607
  23.7837       636
  23.7990       681
  23.8142       677
  23.8295       636
  23.8447       632
  23.8600       682
  23.8753       639
  23.8905       653
  23.9058       648
  23.9210       668
  23.9363       716
  23.9516       669
  23.9668       718
  23.9821       657
  23.9973       658
  24.0126       706
  24.0278       704
  24.0431       654
  24.0584       719
  24.0736       766
  24.0889       705
  24.1041       712
  24.1194       799
  24.1347       743
  24.1499       809
  24.1652       820
  24.1804       845
  24.1957       902
  24.2110       875
  24.2262       928
  24.2415       989
  24.2567       921
  24.2720      1065
  24.2872      1101
  24.3025      1144
  24.3178      1232
  24.3330      1237
  24.3483      1292
  24.3635      1351
  24.3788      1464
  24.3941      1553
  24.4093      1658
  24.4246      1661
  24.4398      1740
  24.4551      1736
  24.4704      1858
  24.4856      1780
  24.5009      1894
  24.5161      1841
  24.5314      1820
  24.5467      1737
  24.5619      1733
  24.5772      1677
  24.5924      1620
  24.6077      1554
  24.6229      1468
  24.6382      1388
  24.6535      1355
  24.6687      1309
  24.6840      1182
  24.6992      1154
  24.7145      1131
  24.7298       995
  24.7450       975
  24.7603       961
  24.7755       981
  24.7908       885
  24.8061       910
  24.8213       889
  24.8366       889
  24.8518       818
  24.8671       815
  24.8823       864
  24.8976       861
  24.9129       801
  24.9281       832
  24.9434       806
  24.9586       845
  24.9739       830
  24.9892       840
  25.0044       796
  25.0197       897
  25.0349       861
  25.0502       802
  25.0655       867
  25.0807       911
  25.0960       879
  25.1112       896
  25.1265       920
  25.1417       947
  25.1570       889
  25.1723       943
  25.1875       937
  25.2028       886
  25.2180       901
  25.2333       927
  25.2486       908
  25.2638       908
  25.2791       897
  25.2943       918
  25.3096       862
  25.3249       929
  25.3401       890
  25.3554       817
  25.3706       898
  25.3859       825
  25.4011       826
  25.4164       859
  25.4317       886
  25.4469       824
  25.4622       822
  25.4774       857
  25.4927       823
  25.5080       813
  25.5232       807
  25.5385       845
  25.5537       808
  25.5690       796
  25.5843       803
  25.5995       782
  25.6148       807
  25.6300       744
  25.6453       753
  25.6606       734
  25.6758       696
  25.6911       768
  25.7063       805
  25.7216       738
  25.7368       740
  25.7521       753
  25.7674       750
  25.7826       718
  25.7979       747
  25.8131       785
  25.8284       766
  25.8437       742
  25.8589       803
  25.8742       806
  25.8894       821
  25.9047       884
  25.9200       887
  25.9352       937
  25.9505       947
  25.9657       952
  25.9810      1027
  25.9962      1094
  26.0115      1085
  26.0268      1160
  26.0420      1264
  26.0573      1399
  26.0725      1327
  26.0878      1442
  26.1031      1417
  26.1183      1477
  26.1336      1503
  26.1488      1503
  26.1641      1494
  26.1794      1532
  26.1946      1429
  26.2099      1355
  26.2251      1345
  26.2404      1250
  26.2556      1184
  26.2709      1131
  26.2862      1121
  26.3014      1116
  26.3167      1066
  26.3319      1024
  26.3472       901
  26.3625       944
  26.3777       906
  26.3930       929
  26.4082       917
  26.4235       856
  26.4388       916
  26.4540       886
  26.4693       847
  26.4845       877
  26.4998       867
  26.5150       884
  26.5303       837
  26.5456       815
  26.5608       908
  26.5761       880
  26.5913       851
  26.6066       853
  26.6219       901
  26.6371       901
  26.6524       913
  26.6676       876
  26.6829       976
  26.6982      1001
  26.7134       992
  26.7287      1065
  26.7439      1050
  26.7592      1117
  26.7745      1082
  26.7897      1092
  26.8050      1137
  26.8202      1049
  26.8355      1132
  26.8507      1172
  26.8660      1156
  26.8813      1297
  26.8965      1229
  26.9118      1328
  26.9270      1266
  26.9423      1289
  26.9576      1162
  26.9728      1279
  26.9881      1323
  27.0033      1213
  27.0186      1301
  27.0339      1346
  27.0491      1296
  27.0644      1333
  27.0796      1448
  27.0949      1446
  27.1101      1399
  27.1254      1517
  27.1407      1589
  27.1559      1602
  27.1712      1674
  27.1864      1716
  27.2017      1860
  27.2170      1890
  27.2322      2128
  27.2475      2225
  27.2627      2383
  27.2780      2576
  27.2933      2812
  27.3085      3070
  27.3238      3348
  27.3390      3626
  27.3543      3969
  27.3695      4389
  27.3848      4848
  27.4001      5351
  27.4153      5886
  27.4306      6449
  27.4458      7155
  27.4611      7618
  27.4764      8011
  27.4916      8349
  27.5069      8554
  27.5221      8765
  27.5374      8980
  27.5527      8833
  27.5679      8850
  27.5832      8813
  27.5984      8718
  27.6137      8581
  27.6289      8387
  27.6442      8335
  27.6595      8163
  27.6747      7835
  27.6900      7548
  27.7052      7133
  27.7205      6722
  27.7358      6227
  27.7510      5815
  27.7663      5457
  27.7815      4975
  27.7968      4768
  27.8121      4332
  27.8273      4137
  27.8426      3821
  27.8578      3598
  27.8731      3458
  27.8884      3310
  27.9036      3217
  27.9189      3132
  27.9341      3114
  27.9494      3070
  27.9646      3017
  27.9799      3128
  27.9952      3115
  28.0104      3233
  28.0257      3297
  28.0409      3426
  28.0562      3602
  28.0715      3820
  28.0867      4036
  28.1020      4452
  28.1172      4575
  28.1325      4890
  28.1478      5255
  28.1630      5528
  28.1783      5936
  28.1935      5927
  28.2088      6296
  28.2240      6605
  28.2393      6589
  28.2546      6855
  28.2698      7008
  28.2851      6934
  28.3003      6915
  28.3156      6775
  28.3309      6584
  28.3461      6678
  28.3614      6450
  28.3766      6244
  28.3919      5877
  28.4072      5607
  28.4224      5306
  28.4377      5024
  28.4529      4871
  28.4682      4449
  28.4834      4223
  28.4987      3893
  28.5140      3693
  28.5292      3362
  28.5445      3101
  28.5597      2893
  28.5750      2591
  28.5903      2571
  28.6055      2368
  28.6208      2118
  28.6360      2027
  28.6513      1920
  28.6666      1834
  28.6818      1787
  28.6971      1689
  28.7123      1554
  28.7276      1499
  28.7428      1391
  28.7581      1353
  28.7734      1336
  28.7886      1275
  28.8039      1282
  28.8191      1216
  28.8344      1231
  28.8497      1134
  28.8649      1100
  28.8802      1099
  28.8954      1148
  28.9107      1114
  28.9260      1074
  28.9412      1019
  28.9565      1004
  28.9717      1040
  28.9870       981
  29.0022       998
  29.0175      1039
  29.0328      1006
  29.0480      1017
  29.0633      1055
  29.0785       902
  29.0938       915
  29.1091       976
  29.1243       985
  29.1396       917
  29.1548       951
  29.1701       934
  29.1854       934
  29.2006       929
  29.2159       895
  29.2311       915
  29.2464       888
  29.2617       895
  29.2769       920
  29.2922       928
  29.3074       916
  29.3227       876
  29.3379       900
  29.3532       868
  29.3685       903
  29.3837       910
  29.3990       877
  29.4142       943
  29.4295       922
  29.4448       871
  29.4600       873
  29.4753       917
  29.4905       877
  29.5058       896
  29.5211       913
  29.5363       926
  29.5516       950
  29.5668       894
  29.5821       920
  29.5973       883
  29.6126       949
  29.6279       981
  29.6431       991
  29.6584      1013
  29.6736       949
  29.6889       990
  29.7042      1053
  29.7194      1018
  29.7347      1006
  29.7499      1061
  29.7652      1065
  29.7805      1027
  29.7957      1118
  29.8110      1071
  29.8262      1115
  29.8415      1119
  29.8567      1105
  29.8720      1139
  29.8873      1181
  29.9025      1248
  29.9178      1210
  29.9330      1208
  29.9483      1247
  29.9636      1315
  29.9788      1242
  29.9941      1376
  30.0093      1363
  30.0246      1428
  30.0399      1488
  30.0551      1573
  30.0704      1658
  30.0856      1776
  30.1009      1845
  30.1161      1983
  30.1314      2130
  30.1467      2358
  30.1619      2525
  30.1772      2787
  30.1924      3021
  30.2077      3415
  30.2230      3740
  30.2382      4030
  30.2535      4317
  30.2687      4772
  30.2840      4953
  30.2993      5272
  30.3145      5448
  30.3298      5540
  30.3450      5658
  30.3603      5580
  30.3756      5507
  30.3908      5704
  30.4061      5528
  30.4213      5415
  30.4366      5251
  30.4518      5129
  30.4671      4938
  30.4824      4816
  30.4976      4587
  30.5129      4346
  30.5281      4088
  30.5434      3869
  30.5587      3525
  30.5739      3255
  30.5892      3000
  30.6044      2768
  30.6197      2561
  30.6350      2362
  30.6502      2165
  30.6655      2025
  30.6807      1892
  30.6960      1758
  30.7112      1573
  30.7265      1533
  30.7418      1506
  30.7570      1422
  30.7723      1277
  30.7875      1319
  30.8028      1185
  30.8181      1181
  30.8333      1109
  30.8486      1109
  30.8638      1038
  30.8791      1042
  30.8944      1048
  30.9096       976
  30.9249       970
  30.9401       986
  30.9554       960
  30.9706       924
  30.9859       968
  31.0012       909
  31.0164       902
  31.0317       931
  31.0469       803
  31.0622       848
  31.0775       794
  31.0927       798
  31.1080       818
  31.1232       825
  31.1385       798
  31.1538       854
  31.1690       816
  31.1843       810
  31.1995       840
  31.2148       787
  31.2300       780
  31.2453       821
  31.2606       778
  31.2758       800
  31.2911       792
  31.3063       769
  31.3216       790
  31.3369       728
  31.3521       756
  31.3674       797
  31.3826       813
  31.3979       769
  31.4132       770
  31.4284       732
  31.4437       814
  31.4589       843
  31.4742       761
  31.4895       785
  31.5047       794
  31.5200       814
  31.5352       780
  31.5505       846
  31.5657       781
  31.5810       738
  31.5963       759
  31.6115       723
  31.6268       809
  31.6420       720
  31.6573       726
  31.6726       804
  31.6878       833
  31.7031       824
  31.7183       774
  31.7336       824
  31.7489       773
  31.7641       811
  31.7794       842
  31.7946       816
  31.8099       810
  31.8251       848
  31.8404       804
  31.8557       875
  31.8709       853
  31.8862       839
  31.9014       852
  31.9167       922
  31.9320       910
  31.9472       888
  31.9625       862
  31.9777       899
  31.9930       857
  32.0083       921
  32.0235       888
  32.0388       986
  32.0540       961
  32.0693       949
  32.0845       973
  32.0998       981
  32.1151      1018
  32.1303      1061
  32.1456      1040
  32.1608      1107
  32.1761      1126
  32.1914      1127
  32.2066      1126
  32.2219      1183
  32.2371      1169
  32.2524      1264
  32.2677      1230
  32.2829      1312
  32.2982      1393
  32.3134      1329
  32.3287      1461
  32.3439      1441
  32.3592      1423
  32.3745      1525
  32.3897      1549
  32.4050      1627
  32.4202      1550
  32.4355      1500
  32.4508      1572
  32.4660      1673
  32.4813      1686
  32.4965      1677
  32.5118      1750
  32.5271      1760
  32.5423      1698
  32.5576      1774
  32.5728      1775
  32.5881      1828
  32.6034      1803
  32.6186      1875
  32.6339      1824
  32.6491      2020
  32.6644      2002
  32.6796      2094
  32.6949      2211
  32.7102      2317
  32.7254      2317
  32.7407      2522
  32.7559      2731
  32.7712      2744
  32.7865      3037
  32.8017      3120
  32.8170      3217
  32.8322      3461
  32.8475      3638
  32.8628      3825
  32.8780      3850
  32.8933      3963
  32.9085      4084
  32.9238      4150
  32.9390      3964
  32.9543      4233
  32.9696      4115
  32.9848      4071
  33.0001      3946
  33.0153      3944
  33.0306      4012
  33.0459      3791
  33.0611      3730
  33.0764      3646
  33.0916      3489
  33.1069      3388
  33.1222      3228
  33.1374      3150
  33.1527      3067
  33.1679      2864
  33.1832      2780
  33.1984      2663
  33.2137      2627
  33.2290      2577
  33.2442      2331
  33.2595      2326
  33.2747      2180
  33.2900      2085
  33.3053      1941
  33.3205      1892
  33.3358      1836
  33.3510      1789
  33.3663      1697
  33.3816      1699
  33.3968      1629
  33.4121      1597
  33.4273      1685
  33.4426      1661
  33.4578      1684
  33.4731      1753
  33.4884      1622
  33.5036      1785
  33.5189      1838
  33.5341      1762
  33.5494      1951
  33.5647      1897
  33.5799      1997
  33.5952      2032
  33.6104      2114
  33.6257      2081
  33.6410      2093
  33.6562      2081
  33.6715      2061
  33.6867      2072
  33.7020      2044
  33.7172      1964
  33.7325      1986
  33.7478      1900
  33.7630      1777
  33.7783      1723
  33.7935      1641
  33.8088      1595
  33.8241      1524
  33.8393      1425
  33.8546      1378
  33.8698      1315
  33.8851      1221
  33.9004      1170
  33.9156      1141
  33.9309      1032
  33.9461      1075
  33.9614      1045
  33.9767      1023
  33.9919       999
  34.0072       944
  34.0224       857
  34.0377       852
  34.0529       877
  34.0682       859
  34.0835       830
  34.0987       815
  34.1140       819
  34.1292       805
  34.1445       799
  34.1598       771
  34.1750       721
  34.1903       722
  34.2055       706
  34.2208       730
  34.2361       742
  34.2513       780
  34.2666       759
  34.2818       772
  34.2971       792
  34.3123       773
  34.3276       732
  34.3429       712
  34.3581       728
  34.3734       728
  34.3886       680
  34.4039       699
  34.4192       722
  34.4344       728
  34.4497       714
  34.4649       764
  34.4802       727
  34.4955       715
  34.5107       696
  34.5260       717
  34.5412       702
  34.5565       686
  34.5717       704
  34.5870       732
  34.6023       740
  34.6175       706
  34.6328       777
  34.6480       754
  34.6633       741
  34.6786       734
  34.6938       713
  34.7091       736
  34.7243       759
  34.7396       694
  34.7549       776
  34.7701       800
  34.7854       819
  34.8006       828
  34.8159       810
  34.8311       823
  34.8464       807
  34.8617       805
  34.8769       883
  34.8922       874
  34.9074       854
  34.9227       817
  34.9380       903
  34.9532       927
  34.9685       920
  34.9837       962
  34.9990      1000
  35.0143      1044
  35.0295      1053
  35.0448      1099
  35.0600      1202
  35.0753      1127
  35.0906      1261
  35.1058      1347
  35.1211      1379
  35.1363      1379
  35.1516      1460
  35.1668      1530
  35.1821      1674
  35.1974      1771
  35.2126      1779
  35.2279      1899
  35.2431      2057
  35.2584      2057
  35.2737      2156
  35.2889      2231
  35.3042      2321
  35.3194      2292
  35.3347      2351
  35.3500      2326
  35.3652      2353
  35.3805      2326
  35.3957      2311
  35.4110      2348
  35.4262      2382
  35.4415      2356
  35.4568      2320
  35.4720      2182
  35.4873      2165
  35.5025      2143
  35.5178      2105
  35.5331      2021
  35.5483      2011
  35.5636      1919
  35.5788      1796
  35.5941      1664
  35.6094      1703
  35.6246      1655
  35.6399      1584
  35.6551      1433
  35.6704      1356
  35.6856      1372
  35.7009      1286
  35.7162      1213
  35.7314      1227
  35.7467      1150
  35.7619      1102
  35.7772      1099
  35.7925      1076
  35.8077      1093
  35.8230      1045
  35.8382      1088
  35.8535      1115
  35.8688      1022
  35.8840      1061
  35.8993      1058
  35.9145       957
  35.9298      1006
  35.9450       946
  35.9603       991
  35.9756       992
  35.9908       948
  36.0061       951
  36.0213       927
  36.0366       932
  36.0519       913
  36.0671       887
  36.0824       891
  36.0976       893
  36.1129       808
  36.1282       812
  36.1434       857
  36.1587       783
  36.1739       804
  36.1892       779
  36.2045       774
  36.2197       806
  36.2350       787
  36.2502       720
  36.2655       735
  36.2807       750
  36.2960       762
  36.3113       750
  36.3265       744
  36.3418       723
  36.3570       730
  36.3723       674
  36.3876       668
  36.4028       679
  36.4181       693
  36.4333       710
  36.4486       734
  36.4639       676
  36.4791       688
  36.4944       694
  36.5096       744
  36.5249       727
  36.5401       711
  36.5554       776
  36.5707       715
  36.5859       787
  36.6012       720
  36.6164       800
  36.6317       828
  36.6470       814
  36.6622       840
  36.6775       844
  36.6927       856
  36.7080       824
  36.7233       900
  36.7385       916
  36.7538       850
  36.7690       941
  36.7843       989
  36.7995       929
  36.8148       936
  36.8301      1001
  36.8453      1058
  36.8606      1063
  36.8758      1093
  36.8911      1118
  36.9064      1174
  36.9216      1241
  36.9369      1233
  36.9521      1287
  36.9674      1363
  36.9827      1337
  36.9979      1367
  37.0132      1355
  37.0284      1382
  37.0437      1384
  37.0589      1341
  37.0742      1424
  37.0895      1386
  37.1047      1396
  37.1200      1352
  37.1352      1365
  37.1505      1321
  37.1658      1343
  37.1810      1340
  37.1963      1281
  37.2115      1250
  37.2268      1243
  37.2421      1219
  37.2573      1227
  37.2726      1202
  37.2878      1183
  37.3031      1183
  37.3184      1148
  37.3336      1246
  37.3489      1154
  37.3641      1187
  37.3794      1154
  37.3946      1103
  37.4099      1168
  37.4252      1154
  37.4404      1166
  37.4557      1178
  37.4709      1205
  37.4862      1225
  37.5015      1281
  37.5167      1299
  37.5320      1233
  37.5472      1251
  37.5625      1268
  37.5778      1216
  37.5930      1131
  37.6083      1177
  37.6235      1165
  37.6388      1057
  37.6540      1095
  37.6693      1081
  37.6846      1054
  37.6998       959
  37.7151       914
  37.7303       879
  37.7456       873
  37.7609       870
  37.7761       874
  37.7914       821
  37.8066       826
  37.8219       820
  37.8372       831
  37.8524       775
  37.8677       841
  37.8829       732
  37.8982       752
  37.9134       786
  37.9287       812
  37.9440       744
  37.9592       828
  37.9745       755
  37.9897       777
  38.0050       807
  38.0203       807
  38.0355       780
  38.0508       808
  38.0660       869
  38.0813       823
  38.0966       846
  38.1118       853
  38.1271       844
  38.1423       929
  38.1576       862
  38.1728       880
  38.1881       875
  38.2034       882
  38.2186       873
  38.2339       920
  38.2491       918
  38.2644       962
  38.2797       956
  38.2949       922
  38.3102       956
  38.3254       982
  38.3407       947
  38.3560       947
  38.3712      1007
  38.3865       956
  38.4017       989
  38.4170       982
  38.4322       960
  38.4475       916
  38.4628       909
  38.4780       894
  38.4933       917
  38.5085       829
  38.5238       850
  38.5391       822
  38.5543       822
  38.5696       835
  38.5848       827
  38.6001       809
  38.6154       724
  38.6306       727
  38.6459       740
  38.6611       759
  38.6764       713
  38.6917       704
  38.7069       667
  38.7222       643
  38.7374       664
  38.7527       673
  38.7679       630
  38.7832       652
  38.7985       584
  38.8137       645
  38.8290       587
  38.8442       649
  38.8595       612
  38.8748       633
  38.8900       635
  38.9053       605
  38.9205       589
  38.9358       592
  38.9511       588
  38.9663       585
  38.9816       569
  38.9968       571
  39.0121       527
  39.0273       606
  39.0426       557
  39.0579       590
  39.0731       546
  39.0884       571
  39.1036       570
  39.1189       558
  39.1342       554
  39.1494       544
  39.1647       559
  39.1799       568
  39.1952       533
  39.2105       554
  39.2257       508
  39.2410       533
  39.2562       566
  39.2715       575
  39.2867       545
  39.3020       564
  39.3173       550
  39.3325       550
  39.3478       545
  39.3630       546
  39.3783       586
  39.3936       577
  39.4088       556
  39.4241       570
  39.4393       566
  39.4546       514
  39.4699       596
  39.4851       561
  39.5004       550
  39.5156       601
  39.5309       574
  39.5461       531
  39.5614       547
  39.5767       555
  39.5919       543
  39.6072       577
  39.6224       568
  39.6377       565
  39.6530       557
  39.6682       550
  39.6835       585
  39.6987       598
  39.7140       551
  39.7293       562
  39.7445       534
  39.7598       559
  39.7750       534
  39.7903       533
  39.8056       557
  39.8208       555
  39.8361       564
  39.8513       549
  39.8666       558
  39.8818       540
  39.8971       559
  39.9124       562
  39.9276       554
  39.9429       560
  39.9581       545
  39.9734       543
  39.9887       592
  40.0039       533
  40.0192       561
  40.0344       546
  40.0497       569
  40.0650       541
  40.0802       583
  40.0955       518
  40.1107       559
  40.1260       535
  40.1412       545
  40.1565       590
  40.1718       539
  40.1870       526
  40.2023       590
  40.2175       517
  40.2328       584
  40.2481       568
  40.2633       546
  40.2786       543
  40.2938       516
  40.3091       558
  40.3244       560
  40.3396       510
  40.3549       623
  40.3701       547
  40.3854       570
  40.4006       602
  40.4159       588
  40.4312       584
  40.4464       568
  40.4617       586
  40.4769       610
  40.4922       550
  40.5075       541
  40.5227       567
  40.5380       564
  40.5532       547
  40.5685       558
  40.5838       580
  40.5990       574
  40.6143       580
  40.6295       576
  40.6448       555
  40.6600       587
  40.6753       566
  40.6906       626
  40.7058       539
  40.7211       603
  40.7363       548
  40.7516       583
  40.7669       578
  40.7821       562
  40.7974       578
  40.8126       604
  40.8279       580
  40.8432       618
  40.8584       596
  40.8737       613
  40.8889       616
  40.9042       663
  40.9195       632
  40.9347       661
  40.9500       658
  40.9652       632
  40.9805       648
  40.9957       679
  41.0110       738
  41.0263       718
  41.0415       742
  41.0568       739
  41.0720       727
  41.0873       741
  41.1026       760
  41.1178       770
  41.1331       706
  41.1483       730
  41.1636       791
  41.1789       808
  41.1941       777
  41.2094       825
  41.2246       860
  41.2399       907
  41.2551       860
  41.2704       940
  41.2857       952
  41.3009       940
  41.3162       943
  41.3314      1124
  41.3467      1018
  41.3620      1055
  41.3772      1100
  41.3925      1093
  41.4077      1103
  41.4230      1107
  41.4383      1230
  41.4535      1157
  41.4688      1124
  41.4840      1230
  41.4993      1193
  41.5145      1199
  41.5298      1201
  41.5451      1227
  41.5603      1155
  41.5756      1152
  41.5908      1225
  41.6061      1110
  41.6214      1173
  41.6366      1182
  41.6519      1120
  41.6671      1151
  41.6824      1128
  41.6977      1161
  41.7129      1154
  41.7282      1183
  41.7434      1103
  41.7587      1139
  41.7739      1110
  41.7892      1193
  41.8045      1106
  41.8197      1124
  41.8350      1037
  41.8502      1102
  41.8655      1086
  41.8808      1138
  41.8960      1006
  41.9113      1088
  41.9265      1036
  41.9418      1041
  41.9571      1017
  41.9723      1073
  41.9876       975
  42.0028       951
  42.0181       966
  42.0334       996
  42.0486       922
  42.0639       911
  42.0791       924
  42.0944       878
  42.1096       856
  42.1249       863
  42.1402       864
  42.1554       857
  42.1707       871
  42.1859       858
  42.2012       798
  42.2165       822
  42.2317       774
  42.2470       760
  42.2622       757
  42.2775       777
  42.2928       729
  42.3080       705
  42.3233       697
  42.3385       727
  42.3538       633
  42.3690       680
  42.3843       712
  42.3996       666
  42.4148       609
  42.4301       692
  42.4453       618
  42.4606       621
  42.4759       616
  42.4911       599
  42.5064       606
  42.5216       589
  42.5369       619
  42.5522       606
  42.5674       612
  42.5827       583
  42.5979       604
  42.6132       561
  42.6284       559
  42.6437       565
  42.6590       560
  42.6742       545
  42.6895       567
  42.7047       540
  42.7200       566
  42.7353       491
  42.7505       568
  42.7658       565
  42.7810       573
  42.7963       565
  42.8116       533
  42.8268       507
  42.8421       524
  42.8573       535
  42.8726       517
  42.8878       481
  42.9031       485
  42.9184       501
  42.9336       519
  42.9489       480
  42.9641       517
  42.9794       530
  42.9947       502
  43.0099       494
  43.0252       529
  43.0404       514
  43.0557       531
  43.0710       497
  43.0862       501
  43.1015       462
  43.1167       504
  43.1320       454
  43.1473       497
  43.1625       482
  43.1778       538
  43.1930       479
  43.2083       454
  43.2235       489
  43.2388       491
  43.2541       471
  43.2693       500
  43.2846       480
  43.2998       484
  43.3151       475
  43.3304       469
  43.3456       474
  43.3609       495
  43.3761       472
  43.3914       498
  43.4067       515
  43.4219       474
  43.4372       479
  43.4524       468
  43.4677       478
  43.4829       505
  43.4982       504
  43.5135       509
  43.5287       499
  43.5440       477
  43.5592       511
  43.5745       492
  43.5898       482
  43.6050       488
  43.6203       500
  43.6355       489
  43.6508       474
  43.6661       491
  43.6813       523
  43.6966       511
  43.7118       524
  43.7271       565
  43.7423       550
  43.7576       555
  43.7729       542
  43.7881       515
  43.8034       549
  43.8186       567
  43.8339       597
  43.8492       561
  43.8644       593
  43.8797       567
  43.8949       569
  43.9102       589
  43.9255       546
  43.9407       586
  43.9560       610
  43.9712       573
  43.9865       600
  44.0017       585
  44.0170       573
  44.0323       605
  44.0475       569
  44.0628       588
  44.0780       598
  44.0933       566
  44.1086       569
  44.1238       598
  44.1391       543
  44.1543       568
  44.1696       584
  44.1849       566
  44.2001       576
  44.2154       539
  44.2306       614
  44.2459       514
  44.2611       543
  44.2764       572
  44.2917       556
  44.3069       565
  44.3222       567
  44.3374       594
  44.3527       564
  44.3680       545
  44.3832       541
  44.3985       497
  44.4137       552
  44.4290       576
  44.4443       518
  44.4595       527
  44.4748       549
  44.4900       523
  44.5053       510
  44.5206       538
  44.5358       492
  44.5511       495
  44.5663       520
  44.5816       537
  44.5968       463
  44.6121       492
  44.6274       508
  44.6426       514
  44.6579       521
  44.6731       498
  44.6884       490
  44.7037       454
  44.7189       461
  44.7342       497
  44.7494       497
  44.7647       465
  44.7800       493
  44.7952       474
  44.8105       498
  44.8257       473
  44.8410       486
  44.8562       465
  44.8715       491
  44.8868       480
  44.9020       472
  44.9173       468
  44.9325       504
  44.9478       490
  44.9631       502
  44.9783       482
  44.9936       489
  45.0088       510
  45.0241       503
  45.0394       493
  45.0546       492
  45.0699       506
  45.0851       470
  45.1004       496
  45.1156       528
  45.1309       497
  45.1462       487
  45.1614       487
  45.1767       545
  45.1919       526
  45.2072       535
  45.2225       560
  45.2377       503
  45.2530       558
  45.2682       525
  45.2835       514
  45.2988       561
  45.3140       591
  45.3293       553
  45.3445       565
  45.3598       598
  45.3750       570
  45.3903       576
  45.4056       568
  45.4208       575
  45.4361       577
  45.4513       621
  45.4666       604
  45.4819       589
  45.4971       625
  45.5124       572
  45.5276       621
  45.5429       606
  45.5582       645
  45.5734       646
  45.5887       573
  45.6039       584
  45.6192       605
  45.6345       589
  45.6497       614
  45.6650       592
  45.6802       615
  45.6955       606
  45.7107       621
  45.7260       640
  45.7413       632
  45.7565       665
  45.7718       564
  45.7870       621
  45.8023       607
  45.8176       635
  45.8328       632
  45.8481       618
  45.8633       595
  45.8786       632
  45.8939       654
  45.9091       651
  45.9244       634
  45.9396       650
  45.9549       651
  45.9701       622
  45.9854       626
  46.0007       681
  46.0159       716
  46.0312       657
  46.0464       676
  46.0617       765
  46.0770       698
  46.0922       715
  46.1075       716
  46.1227       755
  46.1380       704
  46.1533       751
  46.1685       753
  46.1838       776
  46.1990       769
  46.2143       720
  46.2295       773
  46.2448       721
  46.2601       696
  46.2753       696
  46.2906       737
  46.3058       738
  46.3211       738
  46.3364       724
  46.3516       681
  46.3669       708
  46.3821       682
  46.3974       690
  46.4127       705
  46.4279       666
  46.4432       654
  46.4584       667
  46.4737       694
  46.4889       646
  46.5042       671
  46.5195       660
  46.5347       608
  46.5500       642
  46.5652       616
  46.5805       604
  46.5958       565
  46.6110       570
  46.6263       607
  46.6415       564
  46.6568       549
  46.6721       558
  46.6873       509
  46.7026       506
  46.7178       522
  46.7331       530
  46.7484       533
  46.7636       518
  46.7789       490
  46.7941       484
  46.8094       489
  46.8246       459
  46.8399       463
  46.8552       463
  46.8704       516
  46.8857       451
  46.9009       468
  46.9162       462
  46.9315       494
  46.9467       460
  46.9620       489
  46.9772       407
  46.9925       445
  47.0078       439
  47.0230       452
  47.0383       460
  47.0535       450
  47.0688       446
  47.0840       466
  47.0993       471
  47.1146       462
  47.1298       442
  47.1451       464
  47.1603       458
  47.1756       459
  47.1909       471
  47.2061       471
  47.2214       511
  47.2366       463
  47.2519       512
  47.2672       504
  47.2824       532
  47.2977       536
  47.3129       517
  47.3282       507
  47.3434       512
  47.3587       569
  47.3740       562
  47.3892       552
  47.4045       577
  47.4197       574
  47.4350       572
  47.4503       601
  47.4655       581
  47.4808       670
  47.4960       648
  47.5113       623
  47.5266       607
  47.5418       626
  47.5571       698
  47.5723       678
  47.5876       692
  47.6028       721
  47.6181       671
  47.6334       634
  47.6486       657
  47.6639       688
  47.6791       636
  47.6944       623
  47.7097       605
  47.7249       620
  47.7402       606
  47.7554       564
  47.7707       585
  47.7860       611
  47.8012       593
  47.8165       573
  47.8317       539
  47.8470       562
  47.8623       544
  47.8775       520
  47.8928       521
  47.9080       546
  47.9233       548
  47.9385       526
  47.9538       539
  47.9691       485
  47.9843       524
  47.9996       515
  48.0148       453
  48.0301       505
  48.0454       495
  48.0606       496
  48.0759       467
  48.0911       482
  48.1064       476
  48.1217       464
  48.1369       509
  48.1522       469
  48.1674       454
  48.1827       433
  48.1979       446
  48.2132       461
  48.2285       474
  48.2437       461
  48.2590       459
  48.2742       508
  48.2895       490
  48.3048       466
  48.3200       451
  48.3353       466
  48.3505       434
  48.3658       426
  48.3811       484
  48.3963       425
  48.4116       473
  48.4268       473
  48.4421       525
  48.4573       433
  48.4726       464
  48.4879       465
  48.5031       461
  48.5184       490
  48.5336       487
  48.5489       477
  48.5642       533
  48.5794       565
  48.5947       525
  48.6099       567
  48.6252       549
  48.6405       599
  48.6557       563
  48.6710       571
  48.6862       654
  48.7015       666
  48.7167       696
  48.7320       653
  48.7473       710
  48.7625       740
  48.7778       777
  48.7930       773
  48.8083       856
  48.8236       810
  48.8388       886
  48.8541       874
  48.8693       868
  48.8846       857
  48.8999       887
  48.9151       886
  48.9304       932
  48.9456       825
  48.9609       874
  48.9761       900
  48.9914       868
  49.0067       852
  49.0219       859
  49.0372       768
  49.0524       838
  49.0677       805
  49.0830       787
  49.0982       749
  49.1135       810
  49.1287       727
  49.1440       754
  49.1593       710
  49.1745       759
  49.1898       695
  49.2050       726
  49.2203       722
  49.2356       740
  49.2508       794
  49.2661       729
  49.2813       739
  49.2966       777
  49.3118       825
  49.3271       817
  49.3424       868
  49.3576       924
  49.3729       905
  49.3881       854
  49.4034       889
  49.4187       829
  49.4339       851
  49.4492       836
  49.4644       876
  49.4797       865
  49.4950       827
  49.5102       886
  49.5255       900
  49.5407       802
  49.5560       799
  49.5712       826
  49.5865       811
  49.6018       762
  49.6170       727
  49.6323       749
  49.6475       690
  49.6628       730
  49.6781       660
  49.6933       656
  49.7086       657
  49.7238       687
  49.7391       664
  49.7544       595
  49.7696       596
  49.7849       622
  49.8001       628
  49.8154       579
  49.8306       590
  49.8459       560
  49.8612       579
  49.8764       580
  49.8917       556
  49.9069       551
  49.9222       534
  49.9375       499
  49.9527       518
  49.9680       515
  49.9832       514
  49.9985       522
  50.0138       517
  50.0290       487
  50.0443       478
  50.0595       445
  50.0748       472
  50.0900       497
  50.1053       478
  50.1206       487
  50.1358       448
  50.1511       502
  50.1663       533
  50.1816       487
  50.1969       498
  50.2121       467
  50.2274       452
  50.2426       484
  50.2579       469
  50.2732       430
  50.2884       453
  50.3037       446
  50.3189       478
  50.3342       496
  50.3495       462
  50.3647       435
  50.3800       468
  50.3952       438
  50.4105       451
  50.4257       447
  50.4410       454
  50.4563       443
  50.4715       444
  50.4868       449
  50.5020       475
  50.5173       470
  50.5326       481
  50.5478       460
  50.5631       441
  50.5783       452
  50.5936       450
  50.6089       446
  50.6241       466
  50.6394       445
  50.6546       482
  50.6699       449
  50.6851       457
  50.7004       476
  50.7157       497
  50.7309       464
  50.7462       481
  50.7614       450
  50.7767       498
  50.7920       499
  50.8072       495
  50.8225       534
  50.8377       524
  50.8530       536
  50.8683       517
  50.8835       542
  50.8988       517
  50.9140       579
  50.9293       547
  50.9445       594
  50.9598       572
  50.9751       585
  50.9903       588
  51.0056       612
  51.0208       624
  51.0361       714
  51.0514       631
  51.0666       747
  51.0819       731
  51.0971       700
  51.1124       736
  51.1277       713
  51.1429       807
  51.1582       863
  51.1734       830
  51.1887       898
  51.2039       928
  51.2192       889
  51.2345       939
  51.2497      1007
  51.2650      1033
  51.2802       991
  51.2955      1071
  51.3108      1067
  51.3260      1127
  51.3413      1108
  51.3565      1182
  51.3718      1118
  51.3871      1201
  51.4023      1184
  51.4176      1184
  51.4328      1239
  51.4481      1258
  51.4634      1252
  51.4786      1245
  51.4939      1253
  51.5091      1247
  51.5244      1246
  51.5396      1229
  51.5549      1327
  51.5702      1251
  51.5854      1344
  51.6007      1266
  51.6159      1288
  51.6312      1352
  51.6465      1286
  51.6617      1224
  51.6770      1163
  51.6922      1244
  51.7075      1216
  51.7228      1163
  51.7380      1113
  51.7533      1094
  51.7685      1103
  51.7838      1045
  51.7990      1000
  51.8143       955
  51.8296       988
  51.8448       954
  51.8601       923
  51.8753       947
  51.8906       874
  51.9059       934
  51.9211       855
  51.9364       852
  51.9516       753
  51.9669       839
  51.9822       814
  51.9974       776
  52.0127       745
  52.0279       744
  52.0432       691
  52.0584       675
  52.0737       685
  52.0890       630
  52.1042       667
  52.1195       652
  52.1347       635
  52.1500       589
  52.1653       563
  52.1805       590
  52.1958       590
  52.2110       609
  52.2263       610
  52.2416       575
  52.2568       579
  52.2721       534
  52.2873       567
  52.3026       587
  52.3178       608
  52.3331       572
  52.3484       566
  52.3636       613
  52.3789       548
  52.3941       563
  52.4094       602
  52.4247       617
  52.4399       597
  52.4552       621
  52.4704       582
  52.4857       605
  52.5010       578
  52.5162       593
  52.5315       666
  52.5467       636
  52.5620       619
  52.5773       585
  52.5925       634
  52.6078       616
  52.6230       628
  52.6383       624
  52.6535       679
  52.6688       618
  52.6841       627
  52.6993       690
  52.7146       670
  52.7298       651
  52.7451       688
  52.7604       667
  52.7756       701
  52.7909       708
  52.8061       696
  52.8214       708
  52.8367       676
  52.8519       688
  52.8672       727
  52.8824       767
  52.8977       769
  52.9129       705
  52.9282       820
  52.9435       768
  52.9587       764
  52.9740       770
  52.9892       835
  53.0045       883
  53.0198       946
  53.0350       937
  53.0503       969
  53.0655       948
  53.0808       991
  53.0961      1090
  53.1113      1028
  53.1266      1141
  53.1418      1226
  53.1571      1228
  53.1723      1180
  53.1876      1207
  53.2029      1244
  53.2181      1251
  53.2334      1238
  53.2486      1218
  53.2639      1249
  53.2792      1288
  53.2944      1271
  53.3097      1205
  53.3249      1207
  53.3402      1256
  53.3555      1209
  53.3707      1142
  53.3860      1140
  53.4012      1130
  53.4165      1144
  53.4317      1169
  53.4470      1121
  53.4623      1080
  53.4775      1086
  53.4928      1081
  53.5080      1043
  53.5233      1074
  53.5386      1021
  53.5538       980
  53.5691       977
  53.5843      1029
  53.5996       964
  53.6149      1029
  53.6301       937
  53.6454       965
  53.6606       903
  53.6759       924
  53.6911       889
  53.7064       918
  53.7217       832
  53.7369       859
  53.7522       782
  53.7674       847
  53.7827       839
  53.7980       777
  53.8132       777
  53.8285       739
  53.8437       716
  53.8590       728
  53.8743       634
  53.8895       655
  53.9048       626
  53.9200       640
  53.9353       691
  53.9506       614
  53.9658       641
  53.9811       577
  53.9963       621
  54.0116       599
  54.0268       588
  54.0421       590
  54.0574       588
  54.0726       589
  54.0879       553
  54.1031       559
  54.1184       550
  54.1337       473
  54.1489       541
  54.1642       526
  54.1794       542
  54.1947       512
  54.2100       537
  54.2252       535
  54.2405       530
  54.2557       550
  54.2710       548
  54.2862       529
  54.3015       503
  54.3168       528
  54.3320       519
  54.3473       549
  54.3625       551
  54.3778       546
  54.3931       557
  54.4083       557
  54.4236       546
  54.4388       594
  54.4541       559
  54.4694       549
  54.4846       603
  54.4999       625
  54.5151       610
  54.5304       527
  54.5456       607
  54.5609       588
  54.5762       592
  54.5914       599
  54.6067       637
  54.6219       595
  54.6372       675
  54.6525       652
  54.6677       641
  54.6830       666
  54.6982       721
  54.7135       635
  54.7288       696
  54.7440       737
  54.7593       713
  54.7745       803
  54.7898       806
  54.8050       859
  54.8203       857
  54.8356       777
  54.8508       921
  54.8661       961
  54.8813       934
  54.8966      1028
  54.9119      1022
  54.9271      1017
  54.9424      1036
  54.9576       990
  54.9729      1069
  54.9882      1102
  55.0034      1094
